# Wavenumber (cm^-1)  T  A
3.523280 0.796480 0.000009
3.574342 0.807540 0.000009
3.625404 0.813770 0.000009
3.676466 0.876550 0.000009
3.727528 0.918090 0.000009
3.778590 0.902950 0.000009
3.829652 0.897430 0.000009
3.880714 0.868730 0.000009
3.931776 0.854520 0.000009
3.982838 0.834480 0.000009
4.033900 0.855660 0.000010
4.084962 0.887190 0.000010
4.136024 0.877490 0.000010
4.187086 0.869790 0.000010
4.238148 0.884290 0.000010
4.289210 0.894420 0.000010
4.340272 0.899220 0.000010
4.391334 0.896730 0.000010
4.442396 0.884060 0.000010
4.493458 0.890990 0.000010
4.544520 0.895460 0.000010
4.595582 0.891670 0.000010
4.646644 0.894350 0.000010
4.697706 0.897980 0.000010
4.748768 0.893780 0.000010
4.799830 0.891500 0.000010
4.850892 0.896060 0.000010
4.901954 0.906890 0.000011
4.953016 0.920850 0.000011
5.004078 0.918850 0.000011
5.055140 0.918100 0.000011
5.106202 0.920230 0.000011
5.157264 0.919770 0.000011
5.208326 0.921770 0.000011
5.259388 0.926660 0.000011
5.310450 0.934860 0.000011
5.361512 0.933130 0.000011
5.412574 0.939040 0.000011
5.463636 0.945600 0.000011
5.514698 0.943090 0.000011
5.565760 0.945810 0.000011
5.616822 0.947210 0.000011
5.667884 0.951660 0.000011
5.718946 0.952590 0.000011
5.770008 0.951680 0.000012
5.821070 0.962180 0.000012
5.872132 0.971400 0.000012
5.923194 0.975410 0.000012
5.974256 0.978250 0.000012
6.025318 0.977690 0.000012
6.076380 0.975480 0.000012
6.127442 0.972720 0.000012
6.178504 0.971340 0.000012
6.229566 0.975360 0.000012
6.280628 0.980160 0.000012
6.331690 0.981030 0.000012
6.382752 0.977990 0.000012
6.433814 0.976450 0.000012
6.484876 0.975890 0.000012
6.535938 0.971330 0.000012
6.587000 0.967750 0.000013
6.638062 0.969480 0.000013
6.689124 0.973170 0.000013
6.740186 0.972500 0.000013
6.791248 0.966330 0.000013
6.842310 0.963910 0.000013
6.893372 0.965250 0.000013
6.944434 0.965560 0.000013
6.995496 0.963460 0.000013
7.046558 0.961350 0.000013
7.097620 0.961440 0.000013
7.148682 0.962520 0.000013
7.199744 0.961470 0.000013
7.250806 0.958100 0.000013
7.301868 0.955890 0.000013
7.352930 0.956340 0.000013
7.403992 0.955680 0.000013
7.455054 0.956150 0.000014
7.506116 0.958580 0.000014
7.557178 0.959850 0.000014
7.608240 0.961860 0.000014
7.659302 0.965010 0.000014
7.710364 0.965890 0.000014
7.761426 0.967490 0.000014
7.812488 0.971710 0.000014
7.863550 0.973820 0.000014
7.914612 0.974680 0.000014
7.965674 0.976860 0.000014
8.016736 0.978590 0.000014
8.067798 0.980070 0.000014
8.118860 0.983430 0.000014
8.169922 0.984650 0.000014
8.220984 0.984530 0.000014
8.272046 0.986610 0.000014
8.323108 0.988040 0.000015
8.374170 0.986930 0.000015
8.425232 0.986870 0.000015
8.476294 0.988010 0.000015
8.527356 0.987580 0.000015
8.578418 0.985620 0.000015
8.629480 0.983010 0.000015
8.680542 0.979920 0.000015
8.731604 0.976260 0.000015
8.782666 0.973430 0.000015
8.833728 0.971890 0.000015
8.884790 0.970670 0.000015
8.935852 0.967390 0.000015
8.986914 0.960320 0.000015
9.037976 0.958260 0.000015
9.089038 0.957810 0.000015
9.140100 0.950780 0.000015
9.191162 0.943380 0.000016
9.242224 0.939270 0.000016
9.293286 0.936480 0.000016
9.344348 0.935300 0.000016
9.395410 0.929160 0.000016
9.446472 0.922390 0.000016
9.497534 0.920310 0.000016
9.548596 0.919230 0.000016
9.599658 0.916230 0.000016
9.650720 0.913130 0.000016
9.701782 0.914630 0.000016
9.752844 0.915170 0.000016
9.803906 0.913520 0.000017
9.854968 0.910420 0.000017
9.906030 0.910650 0.000017
9.957092 0.912610 0.000017
10.008154 0.911010 0.000017
10.059216 0.911760 0.000017
10.110278 0.913520 0.000017
10.161340 0.916270 0.000017
10.212402 0.919560 0.000017
10.263464 0.921580 0.000018
10.314526 0.923340 0.000018
10.365588 0.926100 0.000018
10.416650 0.930910 0.000018
10.467712 0.935880 0.000018
10.518774 0.939420 0.000018
10.569836 0.942060 0.000018
10.620898 0.946650 0.000018
10.671960 0.952960 0.000019
10.723022 0.959540 0.000019
10.774084 0.964330 0.000019
10.825146 0.967080 0.000019
10.876208 0.969390 0.000019
10.927270 0.972170 0.000019
10.978332 0.973040 0.000019
11.029394 0.973600 0.000019
11.080456 0.976450 0.000019
11.131518 0.979620 0.000020
11.182580 0.981830 0.000020
11.233642 0.980800 0.000020
11.284704 0.978680 0.000020
11.335766 0.974640 0.000020
11.386828 0.968450 0.000020
11.437890 0.962470 0.000020
11.488952 0.957750 0.000020
11.540014 0.953820 0.000021
11.591076 0.948950 0.000021
11.642138 0.941840 0.000021
11.693200 0.931220 0.000021
11.744262 0.918810 0.000021
11.795324 0.908350 0.000021
11.846386 0.898930 0.000021
11.897448 0.889320 0.000021
11.948510 0.880160 0.000022
11.999572 0.871470 0.000022
12.050634 0.863160 0.000022
12.101696 0.854710 0.000022
12.152758 0.845200 0.000022
12.203820 0.834280 0.000022
12.254882 0.825760 0.000022
12.305944 0.818380 0.000022
12.357006 0.811090 0.000022
12.408068 0.805030 0.000023
12.459130 0.800200 0.000023
12.510192 0.796370 0.000023
12.561254 0.793670 0.000023
12.612316 0.791040 0.000023
12.663378 0.788010 0.000023
12.714440 0.786750 0.000023
12.765502 0.787070 0.000023
12.816564 0.787070 0.000024
12.867626 0.787620 0.000024
12.918688 0.789580 0.000024
12.969750 0.792600 0.000024
13.020812 0.799350 0.000024
13.071874 0.808950 0.000024
13.122936 0.818010 0.000024
13.173998 0.825940 0.000024
13.225060 0.834760 0.000024
13.276122 0.844690 0.000025
13.327184 0.854370 0.000025
13.378246 0.864750 0.000025
13.429308 0.876220 0.000025
13.480370 0.889100 0.000025
13.531432 0.902980 0.000025
13.582494 0.915980 0.000025
13.633556 0.926390 0.000025
13.684618 0.937270 0.000026
13.735680 0.949280 0.000026
13.786742 0.958750 0.000026
13.837804 0.964640 0.000026
13.888866 0.967870 0.000026
13.939928 0.968210 0.000026
13.990990 0.964240 0.000026
14.042052 0.956910 0.000026
14.093114 0.946990 0.000027
14.144176 0.934490 0.000027
14.195238 0.918170 0.000027
14.246300 0.897240 0.000027
14.297362 0.872080 0.000027
14.348424 0.844160 0.000027
14.399486 0.815690 0.000027
14.450548 0.784680 0.000027
14.501610 0.751290 0.000027
14.552672 0.717480 0.000028
14.603734 0.685590 0.000028
14.654796 0.651760 0.000028
14.705858 0.613990 0.000028
14.756920 0.577980 0.000028
14.807982 0.545670 0.000028
14.859044 0.515560 0.000028
14.910106 0.486290 0.000028
14.961168 0.459880 0.000029
15.012230 0.436060 0.000029
15.063292 0.412650 0.000029
15.114354 0.389580 0.000029
15.165416 0.365620 0.000029
15.216478 0.342650 0.000029
15.267540 0.322380 0.000029
15.318602 0.304800 0.000029
15.369664 0.290260 0.000030
15.420726 0.277340 0.000030
15.471788 0.264690 0.000030
15.522850 0.252110 0.000030
15.573912 0.240380 0.000030
15.624974 0.228930 0.000030
15.676036 0.217740 0.000030
15.727098 0.207330 0.000030
15.778160 0.197590 0.000030
15.829222 0.189330 0.000031
15.880284 0.181900 0.000031
15.931346 0.175370 0.000031
15.982408 0.170250 0.000031
16.033470 0.164870 0.000031
16.084532 0.160210 0.000031
16.135594 0.155730 0.000031
16.186656 0.149880 0.000031
16.237718 0.144180 0.000032
16.288780 0.138620 0.000032
16.339842 0.133670 0.000032
16.390904 0.129750 0.000032
16.441966 0.127390 0.000032
16.493028 0.125510 0.000032
16.544090 0.123440 0.000032
16.595152 0.121250 0.000033
16.646214 0.117830 0.000033
16.697276 0.113730 0.000033
16.748338 0.110140 0.000033
16.799400 0.107610 0.000034
16.850462 0.105620 0.000034
16.901524 0.103840 0.000034
16.952586 0.102740 0.000034
17.003648 0.101230 0.000035
17.054710 0.099560 0.000035
17.105772 0.097500 0.000035
17.156834 0.095270 0.000035
17.207896 0.093560 0.000035
17.258958 0.091240 0.000036
17.310020 0.089230 0.000036
17.361082 0.088430 0.000036
17.412144 0.087880 0.000036
17.463206 0.086870 0.000037
17.514268 0.085770 0.000037
17.565330 0.085100 0.000037
17.616392 0.084110 0.000037
17.667454 0.082690 0.000038
17.718516 0.081570 0.000038
17.769578 0.080060 0.000038
17.820640 0.078760 0.000038
17.871702 0.078240 0.000038
17.922764 0.077870 0.000039
17.973826 0.077770 0.000039
18.024888 0.077180 0.000039
18.075950 0.076400 0.000039
18.127012 0.075500 0.000040
18.178074 0.073970 0.000040
18.229136 0.073220 0.000040
18.280198 0.073620 0.000040
18.331260 0.073850 0.000041
18.382322 0.074680 0.000041
18.433384 0.083500 0.000041
18.484446 0.103590 0.000041
18.535508 0.121530 0.000042
18.586570 0.127330 0.000042
18.637632 0.111430 0.000042
18.688694 0.086860 0.000042
18.739756 0.071540 0.000042
18.790820 0.060930 0.000043
18.841882 0.059050 0.000043
18.892944 0.057180 0.000043
18.944006 0.055820 0.000043
18.995068 0.054470 0.000044
19.046130 0.053140 0.000044
19.097192 0.052000 0.000044
19.148254 0.050510 0.000044
19.199316 0.049240 0.000045
19.250378 0.048130 0.000045
19.301440 0.047080 0.000045
19.352502 0.046110 0.000045
19.403564 0.045090 0.000045
19.454626 0.044160 0.000046
19.505688 0.043060 0.000046
19.556750 0.041850 0.000046
19.607812 0.040930 0.000046
19.658874 0.040050 0.000047
19.709936 0.039050 0.000047
19.760998 0.038360 0.000047
19.812060 0.037900 0.000047
19.863122 0.037200 0.000048
19.914184 0.036430 0.000048
19.965246 0.035530 0.000048
20.016308 0.034860 0.000048
20.067370 0.034430 0.000048
20.118432 0.033660 0.000049
20.169494 0.032820 0.000049
20.220556 0.032050 0.000049
20.271618 0.031720 0.000049
20.322680 0.031430 0.000050
20.373742 0.030850 0.000050
20.424804 0.030220 0.000050
20.475866 0.029520 0.000050
20.526928 0.028980 0.000051
20.577990 0.028460 0.000051
20.629052 0.028320 0.000051
20.680114 0.028730 0.000051
20.731176 0.028800 0.000051
20.782238 0.028340 0.000052
20.833300 0.028080 0.000052
20.884362 0.028330 0.000052
20.935424 0.028110 0.000052
20.986486 0.027800 0.000053
21.037548 0.027260 0.000053
21.088610 0.026620 0.000053
21.139672 0.026120 0.000053
21.190734 0.025450 0.000054
21.241796 0.025340 0.000054
21.292858 0.025250 0.000054
21.343920 0.025090 0.000054
21.394982 0.025040 0.000054
21.446044 0.024470 0.000055
21.497106 0.023860 0.000055
21.548168 0.023250 0.000055
21.599230 0.022940 0.000055
21.650292 0.023010 0.000056
21.701354 0.022730 0.000056
21.752416 0.022870 0.000056
21.803478 0.023220 0.000056
21.854540 0.022670 0.000057
21.905602 0.021940 0.000057
21.956664 0.021870 0.000057
22.007726 0.021600 0.000057
22.058788 0.021120 0.000058
22.109850 0.021110 0.000058
22.160912 0.021350 0.000058
22.211974 0.021270 0.000058
22.263036 0.021390 0.000058
22.314098 0.021520 0.000059
22.365160 0.021570 0.000059
22.416222 0.021780 0.000059
22.467284 0.021620 0.000059
22.518346 0.021540 0.000060
22.569408 0.021840 0.000060
22.620470 0.022240 0.000060
22.671532 0.022200 0.000060
22.722594 0.022340 0.000061
22.773656 0.023270 0.000061
22.824718 0.023790 0.000061
22.875780 0.024020 0.000061
22.926842 0.024140 0.000061
22.977904 0.023830 0.000062
23.028966 0.024340 0.000062
23.080028 0.025170 0.000062
23.131090 0.025790 0.000062
23.182152 0.026460 0.000063
23.233214 0.026500 0.000063
23.284276 0.027080 0.000063
23.335338 0.027690 0.000063
23.386400 0.028080 0.000064
23.437462 0.028440 0.000064
23.488524 0.029070 0.000064
23.539586 0.029960 0.000064
23.590648 0.030340 0.000064
23.641710 0.031020 0.000065
23.692772 0.032100 0.000065
23.743834 0.033270 0.000065
23.794896 0.034150 0.000065
23.845958 0.034800 0.000066
23.897020 0.035610 0.000066
23.948082 0.036780 0.000066
23.999144 0.038340 0.000066
24.050206 0.040070 0.000066
24.101268 0.041670 0.000066
24.152330 0.043330 0.000066
24.203392 0.045080 0.000066
24.254454 0.046760 0.000066
24.305516 0.048820 0.000067
24.356578 0.051180 0.000067
24.407640 0.053430 0.000067
24.458702 0.055680 0.000067
24.509764 0.058840 0.000067
24.560826 0.062230 0.000067
24.611888 0.065520 0.000067
24.662950 0.069980 0.000067
24.714012 0.074380 0.000067
24.765074 0.078560 0.000068
24.816136 0.084400 0.000068
24.867198 0.091470 0.000068
24.918260 0.100300 0.000068
24.969322 0.114850 0.000068
25.020384 0.139920 0.000068
25.071446 0.173060 0.000068
25.122508 0.178240 0.000068
25.173570 0.168800 0.000068
25.224632 0.166070 0.000069
25.275694 0.169950 0.000069
25.326756 0.181120 0.000069
25.377818 0.195840 0.000069
25.428880 0.212430 0.000069
25.479942 0.231890 0.000069
25.531004 0.253730 0.000069
25.582066 0.277330 0.000069
25.633128 0.303390 0.000069
25.684190 0.332540 0.000069
25.735252 0.364100 0.000070
25.786314 0.398300 0.000070
25.837376 0.435000 0.000070
25.888438 0.473620 0.000070
25.939500 0.515250 0.000070
25.990562 0.559510 0.000070
26.041624 0.604400 0.000070
26.092686 0.648510 0.000070
26.143748 0.690110 0.000070
26.194810 0.729520 0.000071
26.245872 0.766290 0.000071
26.296934 0.798830 0.000071
26.347996 0.827470 0.000071
26.399058 0.850710 0.000071
26.450120 0.867610 0.000071
26.501182 0.879210 0.000071
26.552244 0.885110 0.000071
26.603306 0.885330 0.000071
26.654368 0.880300 0.000072
26.705430 0.871740 0.000072
26.756492 0.860760 0.000072
26.807554 0.846800 0.000072
26.858616 0.830290 0.000072
26.909678 0.812620 0.000072
26.960740 0.795000 0.000072
27.011802 0.776910 0.000072
27.062864 0.758920 0.000072
27.113926 0.742100 0.000072
27.164988 0.726480 0.000073
27.216050 0.712220 0.000073
27.267112 0.698700 0.000073
27.318174 0.686290 0.000073
27.369236 0.675090 0.000073
27.420298 0.665410 0.000073
27.471360 0.657360 0.000073
27.522422 0.650420 0.000073
27.573484 0.644690 0.000073
27.624546 0.640380 0.000074
27.675608 0.638350 0.000074
27.726670 0.637250 0.000074
27.777732 0.636730 0.000074
27.828794 0.637710 0.000074
27.879856 0.639370 0.000074
27.930918 0.642360 0.000074
27.981980 0.646020 0.000074
28.033042 0.650150 0.000074
28.084104 0.656660 0.000075
28.135166 0.665390 0.000075
28.186228 0.674320 0.000075
28.237290 0.683360 0.000075
28.288352 0.693210 0.000075
28.339414 0.704090 0.000075
28.390476 0.716280 0.000075
28.441538 0.728030 0.000075
28.492600 0.740740 0.000075
28.543662 0.754980 0.000075
28.594724 0.769600 0.000076
28.645786 0.783390 0.000076
28.696848 0.797140 0.000076
28.747910 0.812030 0.000076
28.798972 0.826050 0.000076
28.850034 0.838810 0.000076
28.901096 0.851070 0.000076
28.952158 0.862570 0.000076
29.003220 0.873070 0.000076
29.054282 0.882410 0.000077
29.105344 0.889970 0.000077
29.156406 0.896200 0.000077
29.207468 0.900580 0.000077
29.258530 0.904130 0.000077
29.309592 0.906090 0.000077
29.360654 0.905840 0.000077
29.411716 0.904810 0.000077
29.462778 0.902030 0.000077
29.513840 0.897300 0.000078
29.564902 0.892340 0.000078
29.615964 0.886950 0.000078
29.667026 0.880500 0.000078
29.718088 0.874060 0.000078
29.769150 0.867020 0.000078
29.820212 0.858300 0.000078
29.871274 0.849970 0.000078
29.922336 0.843410 0.000078
29.973398 0.837450 0.000079
30.024460 0.830770 0.000079
30.075522 0.825110 0.000079
30.126584 0.820970 0.000079
30.177646 0.817240 0.000079
30.228708 0.814020 0.000079
30.279770 0.811930 0.000079
30.330832 0.810780 0.000079
30.381894 0.811390 0.000080
30.432956 0.812590 0.000080
30.484018 0.812090 0.000080
30.535080 0.812350 0.000081
30.586142 0.814640 0.000081
30.637204 0.815120 0.000081
30.688266 0.814350 0.000081
30.739328 0.812890 0.000082
30.790390 0.806730 0.000082
30.841452 0.795230 0.000082
30.892514 0.777790 0.000083
30.943576 0.753870 0.000083
30.994638 0.724460 0.000083
31.045700 0.689750 0.000084
31.096762 0.649810 0.000084
31.147824 0.604420 0.000084
31.198886 0.554080 0.000084
31.249948 0.501830 0.000085
31.301010 0.448440 0.000085
31.352072 0.397100 0.000085
31.403134 0.349350 0.000086
31.454196 0.303330 0.000086
31.505258 0.262390 0.000086
31.556320 0.225820 0.000086
31.607382 0.191200 0.000087
31.658444 0.161250 0.000087
31.709506 0.136450 0.000087
31.754016 0.118960 0.000088
32.006032 0.096790 0.000089
32.258048 0.079770 0.000090
32.510064 0.051290 0.000092
32.762080 0.029640 0.000093
33.014096 0.017620 0.000095
33.266112 0.010590 0.000096
33.518128 0.006230 0.000098
33.770144 0.003890 0.000099
34.022160 0.002470 0.000101
34.274176 0.001430 0.000102
34.526192 0.000900 0.000104
34.778208 0.000650 0.000105
35.030224 0.000010 0.000106
35.282240 -0.000180 0.000108
35.534256 -0.000110 0.000109
35.786272 -0.000260 0.000111
36.038288 -0.000330 0.000112
36.290304 -0.000270 0.000114
36.542320 -0.000520 0.000115
36.794336 -0.001000 0.000117
37.046352 -0.001130 0.000118
37.298368 -0.000780 0.000119
37.550384 0.000200 0.000121
37.802400 0.000620 0.000122
38.054416 -0.000210 0.000124
38.306432 -0.000600 0.000125
38.558448 -0.000770 0.000126
38.810464 -0.000830 0.000128
39.062480 -0.000880 0.000129
39.314496 -0.000810 0.000131
39.566512 -0.000620 0.000132
39.818528 -0.000690 0.000133
40.070544 -0.000700 0.000135
40.322560 -0.000660 0.000136
40.574576 -0.000920 0.000138
40.826592 -0.000870 0.000139
41.078608 -0.000650 0.000140
41.330624 -0.000550 0.000142
41.582640 -0.000360 0.000143
41.834656 -0.000190 0.000145
42.086672 0.000240 0.000146
42.338688 0.000810 0.000147
42.590704 0.000850 0.000149
42.842720 0.000890 0.000150
43.094736 0.001030 0.000152
43.346752 0.001290 0.000153
43.598768 0.001560 0.000155
43.850784 0.001770 0.000156
44.102800 0.001900 0.000157
44.354816 0.001680 0.000158
44.606832 0.002280 0.000158
44.858848 0.003130 0.000158
45.110864 0.003180 0.000158
45.362880 0.002960 0.000158
45.614896 0.002670 0.000157
45.866912 0.002550 0.000157
46.118928 0.002410 0.000157
46.370944 0.002080 0.000157
46.622960 0.001990 0.000157
46.874976 0.001990 0.000156
47.126992 0.002320 0.000156
47.379008 0.003150 0.000156
47.631024 0.003890 0.000156
47.883040 0.005100 0.000156
48.135056 0.007370 0.000155
48.387072 0.009290 0.000155
48.639088 0.010340 0.000155
48.891104 0.013050 0.000155
49.143120 0.020030 0.000155
49.395136 0.025450 0.000154
49.647152 0.028070 0.000154
49.899168 0.023230 0.000154
50.151184 0.009920 0.000154
50.403200 0.002900 0.000154
50.655216 0.001320 0.000154
50.907232 0.000410 0.000155
51.159248 0.000150 0.000156
51.411264 0.000070 0.000157
51.663280 -0.000160 0.000158
51.915296 -0.000230 0.000159
52.167312 -0.000380 0.000160
52.419328 -0.000420 0.000161
52.671344 -0.000310 0.000162
52.923360 -0.000650 0.000163
53.175376 -0.000960 0.000164
53.427392 -0.001020 0.000165
53.679408 -0.000860 0.000166
53.931424 -0.000650 0.000167
54.183440 -0.000540 0.000168
54.435456 -0.000480 0.000169
54.687472 -0.000310 0.000170
54.939488 -0.000090 0.000171
55.191504 -0.000050 0.000172
55.443520 -0.000360 0.000173
55.695536 -0.000360 0.000174
55.947552 0.000340 0.000176
56.199568 0.000830 0.000177
56.451584 0.001150 0.000178
56.703600 0.001550 0.000179
56.955616 0.001790 0.000180
57.207632 0.001510 0.000181
57.459648 0.001710 0.000182
57.711664 0.002290 0.000183
57.963680 0.002590 0.000184
58.215696 0.002510 0.000184
58.467712 0.002590 0.000184
58.719728 0.002970 0.000183
58.971744 0.003340 0.000183
59.223760 0.003830 0.000182
59.475776 0.004250 0.000182
59.727792 0.004120 0.000182
59.979808 0.003980 0.000181
60.231824 0.003740 0.000181
60.483840 0.003190 0.000180
60.735856 0.002840 0.000180
60.987872 0.002820 0.000179
61.239888 0.003140 0.000179
61.491904 0.003530 0.000178
61.743920 0.003760 0.000178
61.995936 0.003920 0.000177
62.247952 0.004020 0.000177
62.499968 0.004010 0.000176
62.751984 0.003680 0.000176
63.004000 0.003050 0.000175
63.256016 0.002710 0.000175
63.508032 0.002570 0.000174
63.760048 0.002500 0.000174
64.012064 0.002820 0.000173
64.264080 0.003260 0.000173
64.516096 0.003920 0.000172
64.768112 0.004590 0.000172
65.020128 0.004640 0.000172
65.272144 0.004320 0.000172
65.524160 0.004030 0.000172
65.776176 0.003920 0.000172
66.028192 0.003870 0.000172
66.280208 0.004140 0.000172
66.532224 0.004840 0.000172
66.784240 0.005600 0.000172
67.036256 0.006590 0.000172
67.288272 0.007220 0.000172
67.540288 0.008060 0.000172
67.792304 0.009570 0.000172
68.044320 0.011420 0.000172
68.296336 0.014040 0.000172
68.548352 0.016530 0.000172
68.800368 0.017750 0.000172
69.052384 0.017800 0.000172
69.304400 0.017690 0.000172
69.556416 0.018590 0.000172
69.808432 0.021360 0.000172
70.060448 0.025800 0.000172
70.312464 0.030990 0.000172
70.564480 0.035980 0.000172
70.816496 0.039050 0.000172
71.068512 0.039220 0.000172
71.320528 0.038140 0.000173
71.572544 0.036230 0.000175
71.824560 0.034500 0.000176
72.076576 0.036160 0.000177
72.328592 0.041390 0.000179
72.580608 0.044390 0.000180
